Frequency (Hz)	Level (dB)
43.066406	-9.901558
86.132812	0.041460
129.199219	7.766781
172.265625	3.466883
215.332031	-13.684799
258.398438	-7.083454
301.464844	-9.021454
344.531250	-13.599263
387.597656	-3.993911
430.664062	-5.198560
473.730469	-16.285795
516.796875	-10.880675
559.863281	-10.283785
602.929688	-16.992426
645.996094	-11.199899
689.062500	-9.951798
732.128906	-17.024429
775.195312	-15.341984
818.261719	-12.776831
861.328125	-17.654715
904.394531	-16.515347
947.460938	-13.833105
990.527344	-17.634825
1033.593750	-19.111689
1076.660156	-15.624543
1119.726562	-18.300028
1162.792969	-20.263517
1205.859375	-17.432608
1248.925781	-19.204494
1291.992188	-21.514366
1335.058594	-18.841131
1378.125000	-19.550215
1421.191406	-22.306883
1464.257812	-20.430645
1507.324219	-20.746557
1550.390625	-23.309729
1593.457031	-21.921083
1636.523438	-21.739267
1679.589844	-24.013134
1722.656250	-23.235092
1765.722656	-22.584066
1808.789062	-24.242641
1851.855469	-24.479708
1894.921875	-23.908798
1937.988281	-25.739128
1981.054688	-25.922295
2024.121094	-24.951666
2067.187500	-25.699032
2110.253906	-26.541147
2153.320312	-25.970306
2196.386719	-26.680141
2239.453125	-27.772518
2282.519531	-27.482637
2325.585938	-27.690155
2368.652344	-28.673130
2411.718750	-28.309298
2454.785156	-28.205826
2497.851562	-29.244606
2540.917969	-29.599976
2583.984375	-29.623629
2627.050781	-30.430538
2670.117188	-30.724817
2713.183594	-30.186743
2756.250000	-30.748592
2799.316406	-31.489285
2842.382812	-31.463839
2885.449219	-32.116798
2928.515625	-32.690376
2971.582031	-32.288040
3014.648438	-32.540554
3057.714844	-33.465935
3100.781250	-33.529938
3143.847656	-33.716183
3186.914062	-34.523357
3229.980469	-34.045742
3273.046875	-34.158516
3316.113281	-34.965069
3359.179688	-35.129002
3402.246094	-35.235630
3445.312500	-35.658657
3488.378906	-35.635536
3531.445312	-35.397758
3574.511719	-36.150848
3617.578125	-36.681404
3660.644531	-36.839947
3703.710938	-37.809574
3746.777344	-38.048767
3789.843750	-37.487583
3832.910156	-37.453049
3875.976562	-37.777237
3919.042969	-37.511040
3962.109375	-38.062695
4005.175781	-38.857384
4048.242188	-38.700897
4091.308594	-39.155266
4134.375000	-39.266628
4177.441406	-39.445190
4220.507812	-40.238739
4263.574219	-41.079739
4306.640625	-40.741894
4349.707031	-40.891857
4392.773438	-41.029720
4435.839844	-41.222748
4478.906250	-41.196007
4521.972656	-41.129761
4565.039062	-41.199402
4608.105469	-41.540012
4651.171875	-42.160805
4694.238281	-42.601337
4737.304688	-42.130817
4780.371094	-41.080479
4823.437500	-41.174999
4866.503906	-41.490471
4909.570312	-41.971615
4952.636719	-41.606571
4995.703125	-42.178303
5038.769531	-42.947765
5081.835938	-43.030014
5124.902344	-43.068104
5167.968750	-43.221146
5211.035156	-41.174652
5254.101562	-40.038742
5297.167969	-41.152199
5340.234375	-42.227760
5383.300781	-41.992096
5426.367188	-42.196480
5469.433594	-42.749435
5512.500000	-41.637623
5555.566406	-42.802109
5598.632812	-44.442215
5641.699219	-44.325684
5684.765625	-43.902386
5727.832031	-43.566532
5770.898438	-42.042271
5813.964844	-42.394279
5857.031250	-43.582623
5900.097656	-44.277523
5943.164062	-44.750832
5986.230469	-43.967182
6029.296875	-43.379841
6072.363281	-42.598015
6115.429688	-42.971569
6158.496094	-43.908718
6201.562500	-44.657112
6244.628906	-44.440842
6287.695312	-44.628666
6330.761719	-43.496918
6373.828125	-42.944351
6416.894531	-44.228935
6459.960938	-44.754417
6503.027344	-43.729805
6546.093750	-44.259983
6589.160156	-43.915516
6632.226562	-43.829464
6675.292969	-44.289635
6718.359375	-44.420879
6761.425781	-43.956356
6804.492188	-43.922527
6847.558594	-42.767120
6890.625000	-44.278717
6933.691406	-44.069309
6976.757812	-43.061813
7019.824219	-43.416542
7062.890625	-44.214775
7105.957031	-42.612015
7149.023438	-43.520428
7192.089844	-43.431118
7235.156250	-42.693508
7278.222656	-42.839993
7321.289062	-43.566540
7364.355469	-43.649410
7407.421875	-43.779636
7450.488281	-44.044357
7493.554688	-44.102905
7536.621094	-43.232124
7579.687500	-43.249474
7622.753906	-43.872646
7665.820312	-44.105564
7708.886719	-44.140598
7751.953125	-43.898991
7795.019531	-42.900635
7838.085938	-42.979233
7881.152344	-43.126415
7924.218750	-44.494278
7967.285156	-44.679043
8010.351562	-44.267651
8053.417969	-43.115746
8096.484375	-42.680222
8139.550781	-42.921921
8182.617188	-44.453167
8225.683594	-45.147053
8268.750000	-44.949802
8311.816406	-44.153168
8354.882812	-44.219891
8397.949219	-44.553410
8441.015625	-44.047432
8484.082031	-44.809517
8527.148438	-45.119194
8570.214844	-42.798000
8613.281250	-42.053646
8656.347656	-44.169136
8699.414062	-44.840172
8742.480469	-44.992783
8785.546875	-43.550114
8828.613281	-41.166306
8871.679688	-40.261906
8914.746094	-42.162090
8957.812500	-44.482609
9000.878906	-45.236523
9043.945312	-44.457424
9087.011719	-43.276176
9130.078125	-42.641357
9173.144531	-42.955391
9216.210938	-42.975632
9259.277344	-44.413498
9302.343750	-45.439743
9345.410156	-44.168961
9388.476562	-44.198822
9431.542969	-45.985256
9474.609375	-44.347435
9517.675781	-44.309074
9560.742188	-44.489388
9603.808594	-42.280788
9646.875000	-41.849754
9689.941406	-43.116447
9733.007812	-43.565880
9776.074219	-42.433029
9819.140625	-41.660694
9862.207031	-42.046047
9905.273438	-43.612988
9948.339844	-44.242908
9991.406250	-45.084999
10034.472656	-44.242954
10077.539062	-42.841476
10120.605469	-43.487591
10163.671875	-45.207184
10206.738281	-44.198963
10249.804688	-44.528938
10292.871094	-45.006763
10335.937500	-44.691078
10379.003906	-45.065590
10422.070312	-45.680710
10465.136719	-45.414967
10508.203125	-45.687901
10551.269531	-45.977486
10594.335938	-45.485958
10637.402344	-45.603397
10680.468750	-45.804653
10723.535156	-44.966503
10766.601562	-43.829639
10809.667969	-44.063446
10852.734375	-45.423424
10895.800781	-46.317146
10938.867188	-46.162834
10981.933594	-45.154888
11025.000000	-44.157982
11068.066406	-44.007084
11111.132812	-44.644894
11154.199219	-45.450897
11197.265625	-46.464184
11240.332031	-46.261993
11283.398438	-45.449181
11326.464844	-45.740967
11369.531250	-45.942352
11412.597656	-44.466820
11455.664062	-44.545834
11498.730469	-45.505318
11541.796875	-45.247414
11584.863281	-45.709393
11627.929688	-46.366608
11670.996094	-45.087700
11714.062500	-45.285423
11757.128906	-46.036976
11800.195312	-45.416996
11843.261719	-45.238102
11886.328125	-44.855930
11929.394531	-44.634380
11972.460938	-45.381363
12015.527344	-45.187099
12058.593750	-44.451759
12101.660156	-44.674667
12144.726562	-44.859653
12187.792969	-44.362396
12230.859375	-45.243591
12273.925781	-45.659435
12316.992188	-45.331554
12360.058594	-45.679085
12403.125000	-45.803654
12446.191406	-44.988525
12489.257812	-45.341602
12532.324219	-45.526443
12575.390625	-45.068771
12618.457031	-45.570938
12661.523438	-46.040886
12704.589844	-45.890339
12747.656250	-45.087128
12790.722656	-44.354961
12833.789062	-44.057327
12876.855469	-45.195995
12919.921875	-46.117973
12962.988281	-46.688839
13006.054688	-46.127617
13049.121094	-45.008457
13092.187500	-44.822121
13135.253906	-45.389198
13178.320312	-45.980839
13221.386719	-46.212318
13264.453125	-46.493614
13307.519531	-45.826191
13350.585938	-45.407440
13393.652344	-45.214241
13436.718750	-45.479885
13479.785156	-46.606895
13522.851562	-46.710957
13565.917969	-46.052383
13608.984375	-45.215992
13652.050781	-44.830296
13695.117188	-44.777370
13738.183594	-46.512737
13781.250000	-46.112865
13824.316406	-45.252098
13867.382812	-45.578762
13910.449219	-45.264488
13953.515625	-44.730320
13996.582031	-46.268871
14039.648438	-46.646740
14082.714844	-45.410133
14125.781250	-45.742641
14168.847656	-46.081295
14211.914062	-45.584549
14254.980469	-46.531204
14298.046875	-46.640278
14341.113281	-45.447372
14384.179688	-45.914837
14427.246094	-46.577717
14470.312500	-46.017765
14513.378906	-46.160931
14556.445312	-46.076923
14599.511719	-44.903358
14642.578125	-45.463089
14685.644531	-46.875565
14728.710938	-46.573166
14771.777344	-46.571026
14814.843750	-46.659397
14857.910156	-46.104836
14900.976562	-46.081043
14944.042969	-46.594448
14987.109375	-46.269024
15030.175781	-46.795345
15073.242188	-46.801773
15116.308594	-46.785381
15159.375000	-46.575268
15202.441406	-45.813995
15245.507812	-44.674541
15288.574219	-45.907715
15331.640625	-47.488533
15374.707031	-46.321884
15417.773438	-45.651829
15460.839844	-46.712078
15503.906250	-46.087044
15546.972656	-45.498299
15590.039062	-46.768669
15633.105469	-46.983620
15676.171875	-45.575699
15719.238281	-46.519245
15762.304688	-47.787056
15805.371094	-46.701904
15848.437500	-45.847237
15891.503906	-47.624508
15934.570312	-47.569279
15977.636719	-46.630939
16020.703125	-47.052547
16063.769531	-48.311626
16106.835938	-47.558060
16149.902344	-47.508236
16192.968750	-47.714420
16236.035156	-47.424931
16279.101562	-47.487648
16322.167969	-48.431160
16365.234375	-48.693390
16408.300781	-48.028946
16451.367188	-47.457352
16494.433594	-48.001659
16537.500000	-48.542702
16580.566406	-47.921772
16623.632812	-47.789627
16666.699219	-48.797760
16709.765625	-48.825298
16752.832031	-48.346516
16795.898438	-48.313595
16838.964844	-48.363319
16882.031250	-48.458557
16925.097656	-49.270313
16968.164062	-49.482204
17011.230469	-48.852848
17054.296875	-48.798954
17097.363281	-49.002434
17140.429688	-48.731441
17183.496094	-48.616451
17226.562500	-49.265743
17269.628906	-49.623077
17312.695312	-49.666164
17355.761719	-49.777180
17398.828125	-49.359669
17441.894531	-49.666046
17484.960938	-50.281193
17528.027344	-50.023399
17571.093750	-49.752872
17614.160156	-50.057537
17657.226562	-50.219318
17700.292969	-50.841267
17743.359375	-51.224144
17786.425781	-50.882607
17829.492188	-51.272209
17872.558594	-51.447350
17915.625000	-50.889572
17958.691406	-51.253548
18001.757812	-52.277782
18044.824219	-52.674671
18087.890625	-53.111622
18130.957031	-52.715954
18174.023438	-51.621098
18217.089844	-51.640198
18260.156250	-52.845005
18303.222656	-53.153519
18346.289062	-52.654293
18389.355469	-52.770832
18432.421875	-52.952850
18475.488281	-52.592926
18518.554688	-53.175999
18561.621094	-53.704239
18604.687500	-53.821163
18647.753906	-53.983765
18690.820312	-54.522076
18733.886719	-54.193363
18776.953125	-53.875820
18820.019531	-53.395821
18863.085938	-53.851013
18906.152344	-55.357513
18949.218750	-55.199245
18992.285156	-54.714066
19035.351562	-55.048645
19078.417969	-53.100361
19121.484375	-52.502304
19164.550781	-54.319820
19207.617188	-56.367188
19250.683594	-55.051144
19293.750000	-55.027199
19336.816406	-54.716961
19379.882812	-54.538784
19422.949219	-54.468315
19466.015625	-55.244137
19509.082031	-56.878288
19552.148438	-57.875599
19595.214844	-58.045689
19638.281250	-57.454441
19681.347656	-56.582726
19724.414062	-56.624252
19767.480469	-57.240509
19810.546875	-58.158878
19853.613281	-58.051949
19896.679688	-57.513195
19939.746094	-57.683651
19982.812500	-58.360401
20025.878906	-57.122818
20068.945312	-57.300739
20112.011719	-59.569046
20155.078125	-60.637650
20198.144531	-60.072319
20241.210938	-59.150242
20284.277344	-58.940296
20327.343750	-59.638336
20370.410156	-59.739193
20413.476562	-60.457405
20456.542969	-61.319523
20499.609375	-61.296333
20542.675781	-62.011669
20585.742188	-61.715340
20628.808594	-59.912151
20671.875000	-60.427448
20714.941406	-61.993416
20758.007812	-62.263420
20801.074219	-62.888775
20844.140625	-63.497795
20887.207031	-63.575253
20930.273438	-60.756199
20973.339844	-58.721550
21016.406250	-59.604755
21059.472656	-62.344612
21102.539062	-61.724392
21145.605469	-59.328941
21188.671875	-57.739315
21231.738281	-57.967957
21274.804688	-60.411221
21317.871094	-63.916210
21360.937500	-63.491119
21404.003906	-61.676876
21447.070312	-62.008488
21490.136719	-64.099602
21533.203125	-65.476074
21576.269531	-63.515209
21619.335938	-64.274002
21662.402344	-65.793770
21705.468750	-65.820808
21748.535156	-64.391060
21791.601562	-63.655121
21834.667969	-65.281174
21877.734375	-62.991314
21920.800781	-61.266018
21963.867188	-62.846149
22006.933594	-67.016396
