Frequency (Hz)	Level (dB)
43.066406	-11.420874
86.132812	2.277227
129.199219	7.925049
172.265625	1.683240
215.332031	-12.462420
258.398438	-8.715702
301.464844	-13.111540
344.531250	-7.579314
387.597656	-2.763695
430.664062	-9.046569
473.730469	-13.653300
516.796875	-10.372837
559.863281	-14.795738
602.929688	-12.680215
645.996094	-9.021131
689.062500	-14.536636
732.128906	-15.538547
775.195312	-12.854630
818.261719	-16.909466
861.328125	-16.116920
904.394531	-13.634730
947.460938	-17.678421
990.527344	-17.653664
1033.593750	-15.828319
1076.660156	-19.248774
1119.726562	-18.793898
1162.792969	-17.047205
1205.859375	-19.739986
1248.925781	-19.677111
1291.992188	-18.765120
1335.058594	-21.258598
1378.125000	-21.088873
1421.191406	-19.901064
1464.257812	-21.595308
1507.324219	-21.853649
1550.390625	-21.502613
1593.457031	-23.157656
1636.523438	-23.160452
1679.589844	-22.531572
1722.656250	-23.704021
1765.722656	-24.053957
1808.789062	-23.910276
1851.855469	-24.746136
1894.921875	-24.734451
1937.988281	-24.786613
1981.054688	-25.845383
2024.121094	-26.468208
2067.187500	-26.076597
2110.253906	-26.299213
2153.320312	-26.569872
2196.386719	-26.888586
2239.453125	-27.739637
2282.519531	-28.411741
2325.585938	-27.909348
2368.652344	-28.064701
2411.718750	-28.619108
2454.785156	-29.111128
2497.851562	-29.746197
2540.917969	-30.281994
2583.984375	-29.878920
2627.050781	-30.419140
2670.117188	-31.069853
2713.183594	-31.129576
2756.250000	-31.471582
2799.316406	-31.909033
2842.382812	-31.775360
2885.449219	-32.575150
2928.515625	-32.892506
2971.582031	-32.458946
3014.648438	-32.901497
3057.714844	-33.239456
3100.781250	-33.627064
3143.847656	-34.679810
3186.914062	-34.550728
3229.980469	-34.175056
3273.046875	-34.184593
3316.113281	-34.515747
3359.179688	-35.588512
3402.246094	-36.748676
3445.312500	-36.435085
3488.378906	-36.341740
3531.445312	-35.728725
3574.511719	-36.162491
3617.578125	-36.788628
3660.644531	-37.766903
3703.710938	-37.753201
3746.777344	-37.482693
3789.843750	-37.542061
3832.910156	-38.286175
3875.976562	-38.943085
3919.042969	-39.665955
3962.109375	-39.295044
4005.175781	-38.566219
4048.242188	-38.397263
4091.308594	-38.591404
4134.375000	-39.553799
4177.441406	-39.448177
4220.507812	-39.137062
4263.574219	-39.034389
4306.640625	-39.120895
4349.707031	-39.994785
4392.773438	-41.150448
4435.839844	-40.720127
4478.906250	-40.742699
4521.972656	-40.118435
4565.039062	-38.960041
4608.105469	-40.696175
4651.171875	-42.076138
4694.238281	-40.720802
4737.304688	-40.001278
4780.371094	-39.416046
4823.437500	-39.544613
4866.503906	-40.923409
4909.570312	-42.217899
4952.636719	-41.394032
4995.703125	-39.959415
5038.769531	-39.558105
5081.835938	-39.906818
5124.902344	-40.929607
5167.968750	-41.149883
5211.035156	-39.898106
5254.101562	-39.709496
5297.167969	-41.307640
5340.234375	-40.226265
5383.300781	-40.715263
5426.367188	-42.134026
5469.433594	-41.719566
5512.500000	-40.391251
5555.566406	-41.152821
5598.632812	-40.297661
5641.699219	-40.205776
5684.765625	-41.131748
5727.832031	-41.088394
5770.898438	-41.799599
5813.964844	-42.111397
5857.031250	-41.686565
5900.097656	-41.280285
5943.164062	-41.959751
5986.230469	-41.445732
6029.296875	-41.906601
6072.363281	-41.516148
6115.429688	-41.092701
6158.496094	-41.126316
6201.562500	-41.212757
6244.628906	-40.865017
6287.695312	-41.399757
6330.761719	-41.696053
6373.828125	-40.376186
6416.894531	-39.492058
6459.960938	-39.654037
6503.027344	-40.335281
6546.093750	-41.849777
6589.160156	-42.247406
6632.226562	-41.872292
6675.292969	-41.231808
6718.359375	-40.844982
6761.425781	-41.114796
6804.492188	-41.027092
6847.558594	-40.505081
6890.625000	-40.156410
6933.691406	-40.598270
6976.757812	-40.779766
7019.824219	-42.187416
7062.890625	-42.429722
7105.957031	-40.465538
7149.023438	-40.820969
7192.089844	-39.259174
7235.156250	-38.499058
7278.222656	-38.760036
7321.289062	-39.192657
7364.355469	-37.723465
7407.421875	-37.831413
7450.488281	-38.659771
7493.554688	-40.140110
7536.621094	-40.104271
7579.687500	-39.089203
7622.753906	-37.459118
7665.820312	-36.467773
7708.886719	-35.613331
7751.953125	-35.664062
7795.019531	-37.200287
7838.085938	-39.858574
7881.152344	-40.788136
7924.218750	-40.854729
7967.285156	-40.696014
8010.351562	-40.790993
8053.417969	-40.244129
8096.484375	-39.159733
8139.550781	-39.579914
8182.617188	-40.331200
8225.683594	-40.987442
8268.750000	-40.769367
8311.816406	-41.157360
8354.882812	-41.430077
8397.949219	-40.727715
8441.015625	-41.147186
8484.082031	-40.446838
8527.148438	-40.787796
8570.214844	-40.948948
8613.281250	-40.932320
8656.347656	-41.582119
8699.414062	-41.291306
8742.480469	-41.674915
8785.546875	-42.293934
8828.613281	-42.770157
8871.679688	-42.573139
8914.746094	-42.040062
8957.812500	-41.295326
9000.878906	-41.383484
9043.945312	-42.898998
9087.011719	-43.094242
9130.078125	-42.209274
9173.144531	-42.182888
9216.210938	-42.185410
9259.277344	-41.292160
9302.343750	-40.591351
9345.410156	-41.007736
9388.476562	-41.827747
9431.542969	-42.623032
9474.609375	-43.442051
9517.675781	-42.997597
9560.742188	-43.687626
9603.808594	-43.339985
9646.875000	-43.055241
9689.941406	-42.859425
9733.007812	-43.634285
9776.074219	-42.440487
9819.140625	-41.673538
9862.207031	-41.337994
9905.273438	-41.658485
9948.339844	-41.866245
9991.406250	-42.738792
10034.472656	-42.824291
10077.539062	-42.967243
10120.605469	-43.172981
10163.671875	-43.743084
10206.738281	-44.605072
10249.804688	-44.109200
10292.871094	-42.835209
10335.937500	-43.992172
10379.003906	-43.808140
10422.070312	-43.805931
10465.136719	-43.655323
10508.203125	-42.772709
10551.269531	-41.336494
10594.335938	-42.677109
10637.402344	-43.219589
10680.468750	-44.572731
10723.535156	-44.433823
10766.601562	-44.389633
10809.667969	-44.115005
10852.734375	-44.541401
10895.800781	-44.182560
10938.867188	-43.948204
10981.933594	-44.306469
11025.000000	-44.049572
11068.066406	-43.775269
11111.132812	-43.333519
11154.199219	-44.534870
11197.265625	-44.884689
11240.332031	-45.036263
11283.398438	-45.583199
11326.464844	-45.056839
11369.531250	-44.654617
11412.597656	-44.994583
11455.664062	-44.757973
11498.730469	-43.878742
11541.796875	-44.048809
11584.863281	-44.092567
11627.929688	-44.913055
11670.996094	-44.509655
11714.062500	-44.247631
11757.128906	-45.123024
11800.195312	-45.624954
11843.261719	-45.671619
11886.328125	-45.535088
11929.394531	-44.776474
11972.460938	-43.332966
12015.527344	-41.954014
12058.593750	-41.650475
12101.660156	-43.337986
12144.726562	-45.527336
12187.792969	-46.009037
12230.859375	-45.672947
12273.925781	-43.800571
12316.992188	-42.438622
12360.058594	-42.718506
12403.125000	-43.255165
12446.191406	-43.814735
12489.257812	-44.278988
12532.324219	-44.345432
12575.390625	-44.140224
12618.457031	-44.315834
12661.523438	-44.965630
12704.589844	-44.882111
12747.656250	-44.429417
12790.722656	-42.999714
12833.789062	-42.261734
12876.855469	-42.564980
12919.921875	-44.196655
12962.988281	-45.049397
13006.054688	-43.597702
13049.121094	-42.605991
13092.187500	-42.334316
13135.253906	-43.428291
13178.320312	-44.470669
13221.386719	-45.240288
13264.453125	-45.295204
13307.519531	-44.347370
13350.585938	-43.006886
13393.652344	-42.913956
13436.718750	-44.353016
13479.785156	-44.795082
13522.851562	-44.928318
13565.917969	-44.800293
13608.984375	-45.262512
13652.050781	-46.215393
13695.117188	-45.147163
13738.183594	-44.224613
13781.250000	-44.375088
13824.316406	-44.277889
13867.382812	-45.420422
13910.449219	-46.225281
13953.515625	-46.348789
13996.582031	-46.112144
14039.648438	-46.057846
14082.714844	-45.762966
14125.781250	-46.127567
14168.847656	-46.403404
14211.914062	-46.490398
14254.980469	-46.158577
14298.046875	-45.800167
14341.113281	-45.167942
14384.179688	-45.863441
14427.246094	-45.263870
14470.312500	-45.905224
14513.378906	-46.533417
14556.445312	-46.733700
14599.511719	-45.770737
14642.578125	-45.096203
14685.644531	-44.203857
14728.710938	-43.706383
14771.777344	-43.798573
14814.843750	-44.286793
14857.910156	-45.038265
14900.976562	-45.139744
14944.042969	-45.627659
14987.109375	-45.571175
15030.175781	-45.039085
15073.242188	-45.082443
15116.308594	-44.947521
15159.375000	-45.226986
15202.441406	-45.789307
15245.507812	-46.616150
15288.574219	-47.129421
15331.640625	-47.189785
15374.707031	-47.195213
15417.773438	-46.786537
15460.839844	-47.184994
15503.906250	-46.459026
15546.972656	-46.335724
15590.039062	-46.885387
15633.105469	-47.273018
15676.171875	-47.010223
15719.238281	-47.297634
15762.304688	-47.434231
15805.371094	-47.873745
15848.437500	-48.046650
15891.503906	-48.002689
15934.570312	-47.408516
15977.636719	-47.037144
16020.703125	-47.818977
16063.769531	-48.795464
16106.835938	-48.285988
16149.902344	-47.514042
16192.968750	-47.491550
16236.035156	-48.211414
16279.101562	-48.734509
16322.167969	-48.711224
16365.234375	-48.316528
16408.300781	-47.969948
16451.367188	-48.956825
16494.433594	-48.545391
16537.500000	-48.665020
16580.566406	-48.473438
16623.632812	-48.970970
16666.699219	-48.996494
16709.765625	-49.493565
16752.832031	-49.033035
16795.898438	-48.866615
16838.964844	-49.285526
16882.031250	-49.318199
16925.097656	-49.751740
16968.164062	-50.167660
17011.230469	-49.310509
17054.296875	-47.572449
17097.363281	-46.507763
17140.429688	-45.717384
17183.496094	-46.945160
17226.562500	-48.448799
17269.628906	-48.810307
17312.695312	-49.446857
17355.761719	-49.472256
17398.828125	-50.607357
17441.894531	-49.767441
17484.960938	-49.900238
17528.027344	-49.535080
17571.093750	-49.546314
17614.160156	-48.690151
17657.226562	-48.792454
17700.292969	-50.124084
17743.359375	-50.585865
17786.425781	-50.792934
17829.492188	-50.406269
17872.558594	-51.113125
17915.625000	-50.412628
17958.691406	-50.674511
18001.757812	-50.895565
18044.824219	-52.206917
18087.890625	-51.782616
18130.957031	-50.646255
18174.023438	-50.235718
18217.089844	-50.381062
18260.156250	-51.122646
18303.222656	-52.698025
18346.289062	-53.158428
18389.355469	-53.019840
18432.421875	-52.304901
18475.488281	-51.747097
18518.554688	-52.072136
18561.621094	-52.907261
18604.687500	-53.159504
18647.753906	-52.899559
18690.820312	-52.948524
18733.886719	-53.115116
18776.953125	-53.762672
18820.019531	-54.072418
18863.085938	-53.865704
18906.152344	-53.927193
18949.218750	-54.865856
18992.285156	-54.892792
19035.351562	-54.749260
19078.417969	-54.270111
19121.484375	-54.451679
19164.550781	-55.579140
19207.617188	-56.213089
19250.683594	-55.742001
19293.750000	-55.309315
19336.816406	-56.043762
19379.882812	-56.191761
19422.949219	-56.826660
19466.015625	-57.097038
19509.082031	-56.650143
19552.148438	-55.679390
19595.214844	-56.030506
19638.281250	-56.424358
19681.347656	-57.265999
19724.414062	-57.220615
19767.480469	-56.333328
19810.546875	-57.717194
19853.613281	-58.211266
19896.679688	-56.718697
19939.746094	-55.891174
19982.812500	-56.724339
20025.878906	-57.684704
20068.945312	-58.457962
20112.011719	-59.258003
20155.078125	-59.886990
20198.144531	-59.534737
20241.210938	-60.021763
20284.277344	-60.673145
20327.343750	-60.447025
20370.410156	-59.969830
20413.476562	-58.663647
20456.542969	-57.950954
20499.609375	-57.665871
20542.675781	-58.724216
20585.742188	-60.685360
20628.808594	-60.724998
20671.875000	-60.103561
20714.941406	-59.007710
20758.007812	-59.481266
20801.074219	-59.233967
20844.140625	-59.082352
20887.207031	-59.242912
20930.273438	-60.303425
20973.339844	-59.951004
21016.406250	-60.198391
21059.472656	-59.727692
21102.539062	-61.460007
21145.605469	-60.699276
21188.671875	-60.871506
21231.738281	-59.250240
21274.804688	-60.335003
21317.871094	-61.058838
21360.937500	-62.780613
21404.003906	-61.093285
21447.070312	-62.364975
21490.136719	-62.470215
21533.203125	-60.394028
21576.269531	-60.188332
21619.335938	-59.067886
21662.402344	-58.357338
21705.468750	-58.543491
21748.535156	-59.248734
21791.601562	-59.185150
21834.667969	-59.886765
21877.734375	-61.887814
21920.800781	-61.259705
21963.867188	-61.771904
22006.933594	-61.792149
