Frequency (Hz)	Level (dB)
43.066406	-8.026270
86.132812	3.687427
129.199219	7.604480
172.265625	-0.382188
215.332031	-8.101034
258.398438	-6.667046
301.464844	-11.455904
344.531250	-4.912060
387.597656	-4.998399
430.664062	-13.085951
473.730469	-10.126790
516.796875	-11.214780
559.863281	-14.493918
602.929688	-10.439815
645.996094	-13.147447
689.062500	-15.591749
732.128906	-12.958804
775.195312	-16.081043
818.261719	-16.809586
861.328125	-14.908817
904.394531	-18.163591
947.460938	-17.123201
990.527344	-16.562922
1033.593750	-19.752712
1076.660156	-18.852556
1119.726562	-18.867868
1162.792969	-21.188019
1205.859375	-19.446735
1248.925781	-20.371981
1291.992188	-22.124369
1335.058594	-20.869761
1378.125000	-22.092249
1421.191406	-23.000349
1464.257812	-22.006035
1507.324219	-23.454580
1550.390625	-23.851316
1593.457031	-23.346851
1636.523438	-24.675840
1679.589844	-24.595570
1722.656250	-24.204939
1765.722656	-25.589485
1808.789062	-25.651234
1851.855469	-25.945124
1894.921875	-26.751274
1937.988281	-26.112741
1981.054688	-26.672958
2024.121094	-27.916018
2067.187500	-27.516075
2110.253906	-27.706570
2153.320312	-28.330254
2196.386719	-28.419157
2239.453125	-29.214998
2282.519531	-29.649162
2325.585938	-29.225872
2368.652344	-29.763372
2411.718750	-29.944077
2454.785156	-30.364210
2497.851562	-31.045362
2540.917969	-31.197775
2583.984375	-31.415016
2627.050781	-31.803705
2670.117188	-32.066631
2713.183594	-32.281994
2756.250000	-32.743885
2799.316406	-32.906078
2842.382812	-32.932384
2885.449219	-33.122223
2928.515625	-33.527245
2971.582031	-33.932922
3014.648438	-34.155060
3057.714844	-34.406094
3100.781250	-34.291904
3143.847656	-34.628517
3186.914062	-35.340145
3229.980469	-35.408600
3273.046875	-35.372639
3316.113281	-35.289650
3359.179688	-35.604462
3402.246094	-36.297737
3445.312500	-36.771141
3488.378906	-36.209934
3531.445312	-36.371849
3574.511719	-36.541664
3617.578125	-36.580097
3660.644531	-37.444538
3703.710938	-37.710835
3746.777344	-37.626102
3789.843750	-37.229465
3832.910156	-37.187843
3875.976562	-37.865566
3919.042969	-38.666981
3962.109375	-38.049580
4005.175781	-38.235870
4048.242188	-38.389954
4091.308594	-39.059959
4134.375000	-39.682583
4177.441406	-38.948006
4220.507812	-38.848331
4263.574219	-38.779140
4306.640625	-39.641769
4349.707031	-40.109280
4392.773438	-40.123970
4435.839844	-40.656528
4478.906250	-40.498718
4521.972656	-39.955311
4565.039062	-39.939835
4608.105469	-40.686790
4651.171875	-41.239380
4694.238281	-40.482090
4737.304688	-40.101189
4780.371094	-40.369984
4823.437500	-39.768536
4866.503906	-39.791489
4909.570312	-40.173019
4952.636719	-40.423855
4995.703125	-40.027473
5038.769531	-40.425846
5081.835938	-40.919460
5124.902344	-40.167206
5167.968750	-40.865223
5211.035156	-41.773911
5254.101562	-40.295265
5297.167969	-39.787575
5340.234375	-40.857365
5383.300781	-40.293671
5426.367188	-41.095123
5469.433594	-40.570183
5512.500000	-41.338020
5555.566406	-42.079437
5598.632812	-40.736496
5641.699219	-39.169628
5684.765625	-39.352837
5727.832031	-41.151424
5770.898438	-40.652653
5813.964844	-41.375351
5857.031250	-43.590584
5900.097656	-41.695835
5943.164062	-41.002346
5986.230469	-41.169189
6029.296875	-40.305832
6072.363281	-41.217232
6115.429688	-42.603958
6158.496094	-41.259727
6201.562500	-40.330193
6244.628906	-40.293217
6287.695312	-38.992344
6330.761719	-39.926819
6373.828125	-41.187702
6416.894531	-42.069248
6459.960938	-42.235859
6503.027344	-42.219692
6546.093750	-42.159847
6589.160156	-41.409355
6632.226562	-41.919914
6675.292969	-43.233448
6718.359375	-42.070362
6761.425781	-42.301140
6804.492188	-41.286327
6847.558594	-41.246151
6890.625000	-42.057709
6933.691406	-41.448837
6976.757812	-41.385639
7019.824219	-42.047256
7062.890625	-41.603134
7105.957031	-42.011986
7149.023438	-42.333462
7192.089844	-40.759682
7235.156250	-39.807468
7278.222656	-42.467403
7321.289062	-42.330479
7364.355469	-41.448860
7407.421875	-42.295422
7450.488281	-41.785419
7493.554688	-39.839115
7536.621094	-39.536705
7579.687500	-39.079472
7622.753906	-38.101994
7665.820312	-40.194828
7708.886719	-41.952156
7751.953125	-41.320545
7795.019531	-39.764587
7838.085938	-39.938740
7881.152344	-41.942188
7924.218750	-42.450157
7967.285156	-42.261612
8010.351562	-41.649185
8053.417969	-42.123142
8096.484375	-41.393272
8139.550781	-42.074177
8182.617188	-42.031246
8225.683594	-42.013844
8268.750000	-42.041691
8311.816406	-42.063763
8354.882812	-41.371040
8397.949219	-42.365612
8441.015625	-42.000046
8484.082031	-41.288387
8527.148438	-41.117638
8570.214844	-42.090401
8613.281250	-40.440826
8656.347656	-41.458740
8699.414062	-39.281395
8742.480469	-39.879032
8785.546875	-40.665745
8828.613281	-42.567280
8871.679688	-43.735123
8914.746094	-43.060352
8957.812500	-42.064766
9000.878906	-41.080975
9043.945312	-39.302113
9087.011719	-40.763165
9130.078125	-39.238968
9173.144531	-39.963047
9216.210938	-38.976379
9259.277344	-39.104000
9302.343750	-41.467487
9345.410156	-42.898582
9388.476562	-43.621521
9431.542969	-42.876400
9474.609375	-43.528950
9517.675781	-44.673851
9560.742188	-42.007423
9603.808594	-41.169147
9646.875000	-41.665752
9689.941406	-43.297192
9733.007812	-43.777817
9776.074219	-41.267372
9819.140625	-41.216774
9862.207031	-43.803364
9905.273438	-44.047245
9948.339844	-42.240337
9991.406250	-42.493275
10034.472656	-44.321472
10077.539062	-42.338184
10120.605469	-42.180756
10163.671875	-43.087433
10206.738281	-42.622787
10249.804688	-41.633591
10292.871094	-42.444756
10335.937500	-41.871986
10379.003906	-44.844444
10422.070312	-41.787292
10465.136719	-41.202312
10508.203125	-41.076214
10551.269531	-43.174442
10594.335938	-44.139805
10637.402344	-44.803478
10680.468750	-43.466347
10723.535156	-42.891602
10766.601562	-42.070889
10809.667969	-42.967400
10852.734375	-44.839897
10895.800781	-43.679630
10938.867188	-40.989742
10981.933594	-42.260193
11025.000000	-43.953186
11068.066406	-42.161709
11111.132812	-43.851166
11154.199219	-45.285202
11197.265625	-44.557976
11240.332031	-43.829014
11283.398438	-43.784859
11326.464844	-42.866611
11369.531250	-43.546581
11412.597656	-43.748447
11455.664062	-42.915073
11498.730469	-43.246948
11541.796875	-44.261406
11584.863281	-43.227089
11627.929688	-43.104069
11670.996094	-44.184208
11714.062500	-45.265438
11757.128906	-44.629913
11800.195312	-43.870472
11843.261719	-44.261333
11886.328125	-43.208138
11929.394531	-43.922359
11972.460938	-43.594666
12015.527344	-42.175945
12058.593750	-42.890881
12101.660156	-42.459724
12144.726562	-43.292709
12187.792969	-44.341290
12230.859375	-42.933071
12273.925781	-42.111450
12316.992188	-41.498627
12360.058594	-43.169563
12403.125000	-43.536118
12446.191406	-43.823807
12489.257812	-44.482254
12532.324219	-44.547794
12575.390625	-42.806767
12618.457031	-44.088085
12661.523438	-43.040707
12704.589844	-44.736809
12747.656250	-43.578419
12790.722656	-43.402790
12833.789062	-43.408321
12876.855469	-43.705341
12919.921875	-44.488621
12962.988281	-43.784977
13006.054688	-40.792515
13049.121094	-41.986671
13092.187500	-43.069695
13135.253906	-44.792358
13178.320312	-43.217747
13221.386719	-43.640781
13264.453125	-45.333466
13307.519531	-45.245098
13350.585938	-44.817318
13393.652344	-44.731308
13436.718750	-45.728691
13479.785156	-45.845612
13522.851562	-45.236553
13565.917969	-44.241806
13608.984375	-42.203693
13652.050781	-42.985424
13695.117188	-44.573341
13738.183594	-44.967606
13781.250000	-44.108646
13824.316406	-44.324333
13867.382812	-44.716694
13910.449219	-44.645470
13953.515625	-44.773327
13996.582031	-45.959656
14039.648438	-45.211010
14082.714844	-44.169918
14125.781250	-44.419853
14168.847656	-45.808754
14211.914062	-45.086395
14254.980469	-45.492672
14298.046875	-45.634972
14341.113281	-45.594986
14384.179688	-43.885288
14427.246094	-45.041073
14470.312500	-46.235317
14513.378906	-45.505299
14556.445312	-44.985687
14599.511719	-45.748920
14642.578125	-46.239357
14685.644531	-45.407028
14728.710938	-45.235329
14771.777344	-46.393150
14814.843750	-45.690598
14857.910156	-44.228760
14900.976562	-44.803139
14944.042969	-45.324665
14987.109375	-45.675762
15030.175781	-45.251549
15073.242188	-45.127293
15116.308594	-46.229870
15159.375000	-46.432030
15202.441406	-46.571152
15245.507812	-46.121544
15288.574219	-45.656601
15331.640625	-46.064789
15374.707031	-45.615391
15417.773438	-46.364162
15460.839844	-45.177059
15503.906250	-45.891491
15546.972656	-46.304134
15590.039062	-45.022743
15633.105469	-46.257488
15676.171875	-46.795162
15719.238281	-46.113129
15762.304688	-45.835434
15805.371094	-46.935402
15848.437500	-47.479584
15891.503906	-47.872089
15934.570312	-47.265629
15977.636719	-46.610443
16020.703125	-46.081814
16063.769531	-47.128807
16106.835938	-47.188667
16149.902344	-46.722309
16192.968750	-46.862820
16236.035156	-47.214657
16279.101562	-47.511654
16322.167969	-47.968567
16365.234375	-45.815231
16408.300781	-45.669884
16451.367188	-46.960037
16494.433594	-46.795837
16537.500000	-47.874638
16580.566406	-48.519909
16623.632812	-48.551529
16666.699219	-47.995758
16709.765625	-47.487179
16752.832031	-46.776180
16795.898438	-48.309273
16838.964844	-48.255138
16882.031250	-47.319046
16925.097656	-48.609650
16968.164062	-48.267979
17011.230469	-48.808990
17054.296875	-48.825874
17097.363281	-48.830658
17140.429688	-48.741344
17183.496094	-48.380402
17226.562500	-48.396023
17269.628906	-47.857761
17312.695312	-49.076309
17355.761719	-48.825432
17398.828125	-49.042751
17441.894531	-48.873199
17484.960938	-48.623146
17528.027344	-49.110184
17571.093750	-49.515987
17614.160156	-49.406475
17657.226562	-49.268940
17700.292969	-50.385681
17743.359375	-50.321827
17786.425781	-49.628689
17829.492188	-50.592083
17872.558594	-50.161091
17915.625000	-50.796608
17958.691406	-49.601547
18001.757812	-48.928265
18044.824219	-49.544365
18087.890625	-49.864101
18130.957031	-51.871120
18174.023438	-50.549168
18217.089844	-50.950542
18260.156250	-51.372272
18303.222656	-51.673443
18346.289062	-50.539230
18389.355469	-49.358150
18432.421875	-51.131340
18475.488281	-51.087772
18518.554688	-51.204403
18561.621094	-51.984119
18604.687500	-51.363010
18647.753906	-52.562794
18690.820312	-53.672226
18733.886719	-53.324635
18776.953125	-52.534679
18820.019531	-53.387638
18863.085938	-54.228180
18906.152344	-54.107567
18949.218750	-53.309624
18992.285156	-54.176857
19035.351562	-53.922901
19078.417969	-54.239174
19121.484375	-54.913277
19164.550781	-52.262630
19207.617188	-54.043449
19250.683594	-55.801804
19293.750000	-54.915245
19336.816406	-55.371227
19379.882812	-54.514484
19422.949219	-54.642738
19466.015625	-54.792427
19509.082031	-54.790184
19552.148438	-56.427212
19595.214844	-55.009136
19638.281250	-57.218216
19681.347656	-56.922970
19724.414062	-55.851734
19767.480469	-56.911015
19810.546875	-58.048393
19853.613281	-58.720978
19896.679688	-57.075439
19939.746094	-56.376888
19982.812500	-55.908440
20025.878906	-57.254139
20068.945312	-55.197613
20112.011719	-57.886951
20155.078125	-60.079571
20198.144531	-60.192375
20241.210938	-60.072609
20284.277344	-59.658550
20327.343750	-58.530704
20370.410156	-58.942055
20413.476562	-56.939079
20456.542969	-56.993683
20499.609375	-59.472389
20542.675781	-60.950317
20585.742188	-60.860359
20628.808594	-60.965206
20671.875000	-61.841778
20714.941406	-60.426254
20758.007812	-58.856045
20801.074219	-60.410355
20844.140625	-60.373123
20887.207031	-61.056309
20930.273438	-60.572598
20973.339844	-62.107510
21016.406250	-59.041042
21059.472656	-61.132233
21102.539062	-61.678394
21145.605469	-58.125767
21188.671875	-59.474087
21231.738281	-59.768398
21274.804688	-63.171326
21317.871094	-61.556129
21360.937500	-62.101463
21404.003906	-62.864796
21447.070312	-61.338730
21490.136719	-61.254044
21533.203125	-59.072250
21576.269531	-57.026024
21619.335938	-60.040901
21662.402344	-57.706886
21705.468750	-62.240417
21748.535156	-59.547676
21791.601562	-62.030540
21834.667969	-64.492073
21877.734375	-60.977169
21920.800781	-60.164139
21963.867188	-60.051567
22006.933594	-61.623051
