Frequency (Hz)	Level (dB)
43.066406	-9.516590
86.132812	5.837941
129.199219	7.241338
172.265625	-4.131516
215.332031	-12.504928
258.398438	-14.140662
301.464844	-6.168108
344.531250	-2.166506
387.597656	-9.334644
430.664062	-14.327547
473.730469	-14.253787
516.796875	-13.099467
559.863281	-7.541927
602.929688	-11.532022
645.996094	-16.220655
689.062500	-15.116265
732.128906	-16.778082
775.195312	-12.096307
818.261719	-13.630845
861.328125	-17.874437
904.394531	-16.604872
947.460938	-18.298365
990.527344	-16.095442
1033.593750	-15.928568
1076.660156	-19.280268
1119.726562	-18.371740
1162.792969	-19.362974
1205.859375	-19.296606
1248.925781	-18.337460
1291.992188	-20.682428
1335.058594	-20.202347
1378.125000	-20.552023
1421.191406	-21.608379
1464.257812	-20.659950
1507.324219	-22.141397
1550.390625	-22.052914
1593.457031	-21.994699
1636.523438	-23.238483
1679.589844	-22.836185
1722.656250	-23.532425
1765.722656	-23.847910
1808.789062	-23.607389
1851.855469	-24.602327
1894.921875	-24.888945
1937.988281	-24.923140
1981.054688	-25.452421
2024.121094	-25.253563
2067.187500	-25.895359
2110.253906	-26.690962
2153.320312	-26.520372
2196.386719	-26.887062
2239.453125	-26.904360
2282.519531	-27.183886
2325.585938	-28.154716
2368.652344	-28.211227
2411.718750	-28.327414
2454.785156	-28.539038
2497.851562	-28.557039
2540.917969	-29.424700
2583.984375	-29.782509
2627.050781	-29.806875
2670.117188	-30.038204
2713.183594	-30.082520
2756.250000	-30.629532
2799.316406	-31.243793
2842.382812	-31.265760
2885.449219	-31.498495
2928.515625	-31.640148
2971.582031	-31.860706
3014.648438	-32.644192
3057.714844	-32.662853
3100.781250	-32.847561
3143.847656	-33.172478
3186.914062	-33.321438
3229.980469	-34.058006
3273.046875	-34.034225
3316.113281	-34.001266
3359.179688	-34.482327
3402.246094	-34.678734
3445.312500	-35.366207
3488.378906	-35.436447
3531.445312	-35.233139
3574.511719	-35.713573
3617.578125	-36.042210
3660.644531	-36.642963
3703.710938	-36.724369
3746.777344	-36.406960
3789.843750	-36.825485
3832.910156	-37.388851
3875.976562	-37.824837
3919.042969	-38.037674
3962.109375	-37.753403
4005.175781	-38.056072
4048.242188	-38.689198
4091.308594	-38.745964
4134.375000	-38.986790
4177.441406	-38.780083
4220.507812	-39.190853
4263.574219	-40.009995
4306.640625	-39.827793
4349.707031	-40.082954
4392.773438	-40.003643
4435.839844	-40.186192
4478.906250	-40.898212
4521.972656	-40.785046
4565.039062	-40.835052
4608.105469	-40.914894
4651.171875	-41.096569
4694.238281	-41.749714
4737.304688	-41.806698
4780.371094	-41.649937
4823.437500	-41.742928
4866.503906	-41.763767
4909.570312	-41.987122
4952.636719	-42.359848
4995.703125	-42.227283
5038.769531	-42.326530
5081.835938	-42.898949
5124.902344	-42.324924
5167.968750	-42.589821
5211.035156	-42.864918
5254.101562	-42.395157
5297.167969	-43.145988
5340.234375	-43.019390
5383.300781	-42.896484
5426.367188	-43.411705
5469.433594	-42.996067
5512.500000	-42.811443
5555.566406	-43.207142
5598.632812	-43.427277
5641.699219	-43.556347
5684.765625	-43.155476
5727.832031	-43.227303
5770.898438	-43.475014
5813.964844	-43.518097
5857.031250	-43.415035
5900.097656	-42.432098
5943.164062	-42.759491
5986.230469	-43.914497
6029.296875	-43.941776
6072.363281	-43.919861
6115.429688	-42.729221
6158.496094	-42.004410
6201.562500	-43.649918
6244.628906	-44.076889
6287.695312	-43.572502
6330.761719	-43.172981
6373.828125	-41.879223
6416.894531	-42.605095
6459.960938	-43.820892
6503.027344	-43.577915
6546.093750	-43.176540
6589.160156	-42.283527
6632.226562	-42.007217
6675.292969	-42.957336
6718.359375	-43.816605
6761.425781	-42.950397
6804.492188	-42.160484
6847.558594	-42.653557
6890.625000	-43.659435
6933.691406	-44.199478
6976.757812	-43.628658
7019.824219	-42.099285
7062.890625	-42.263199
7105.957031	-43.146648
7149.023438	-43.293591
7192.089844	-43.343014
7235.156250	-43.267059
7278.222656	-43.775391
7321.289062	-43.312183
7364.355469	-42.809864
7407.421875	-42.345940
7450.488281	-43.009163
7493.554688	-44.536987
7536.621094	-44.236912
7579.687500	-43.898830
7622.753906	-43.500717
7665.820312	-43.851810
7708.886719	-44.154911
7751.953125	-43.313904
7795.019531	-43.411465
7838.085938	-43.639053
7881.152344	-44.217911
7924.218750	-44.800980
7967.285156	-43.380909
8010.351562	-43.302048
8053.417969	-43.908684
8096.484375	-43.873322
8139.550781	-43.963020
8182.617188	-43.431629
8225.683594	-43.882000
8268.750000	-45.153904
8311.816406	-44.586124
8354.882812	-44.361481
8397.949219	-43.482956
8441.015625	-43.694481
8484.082031	-45.275654
8527.148438	-44.271080
8570.214844	-45.003220
8613.281250	-44.613560
8656.347656	-44.261166
8699.414062	-45.252567
8742.480469	-44.142895
8785.546875	-44.633114
8828.613281	-45.044983
8871.679688	-45.403358
8914.746094	-45.414268
8957.812500	-44.534412
9000.878906	-44.759697
9043.945312	-45.036572
9087.011719	-45.839806
9130.078125	-45.399578
9173.144531	-44.237217
9216.210938	-44.335346
9259.277344	-45.256069
9302.343750	-45.613716
9345.410156	-45.305176
9388.476562	-45.140419
9431.542969	-44.945251
9474.609375	-45.882290
9517.675781	-45.555012
9560.742188	-45.169514
9603.808594	-45.778847
9646.875000	-45.694244
9689.941406	-46.429016
9733.007812	-46.211170
9776.074219	-45.483601
9819.140625	-45.387016
9862.207031	-45.668701
9905.273438	-46.125683
9948.339844	-45.921505
9991.406250	-45.301025
10034.472656	-45.240463
10077.539062	-45.673130
10120.605469	-45.840454
10163.671875	-45.914604
10206.738281	-45.225849
10249.804688	-45.390919
10292.871094	-45.989445
10335.937500	-46.125980
10379.003906	-46.620785
10422.070312	-45.566780
10465.136719	-44.901516
10508.203125	-45.390301
10551.269531	-45.887493
10594.335938	-46.550980
10637.402344	-47.071144
10680.468750	-45.993740
10723.535156	-45.717968
10766.601562	-45.813011
10809.667969	-45.489437
10852.734375	-46.093235
10895.800781	-46.679142
10938.867188	-46.987762
10981.933594	-46.960026
11025.000000	-46.648861
11068.066406	-46.237640
11111.132812	-46.358776
11154.199219	-46.587227
11197.265625	-46.634583
11240.332031	-46.607147
11283.398438	-46.266556
11326.464844	-46.677048
11369.531250	-47.144859
11412.597656	-47.361320
11455.664062	-46.824371
11498.730469	-46.131931
11541.796875	-46.492176
11584.863281	-46.973957
11627.929688	-47.302197
11670.996094	-47.265354
11714.062500	-47.185001
11757.128906	-47.296211
11800.195312	-47.494423
11843.261719	-47.524216
11886.328125	-47.094803
11929.394531	-47.371819
11972.460938	-47.421902
12015.527344	-47.615723
12058.593750	-47.584435
12101.660156	-47.065903
12144.726562	-47.492336
12187.792969	-47.546509
12230.859375	-47.260582
12273.925781	-47.635002
12316.992188	-47.164867
12360.058594	-47.129772
12403.125000	-47.507866
12446.191406	-47.182289
12489.257812	-47.493305
12532.324219	-47.388660
12575.390625	-47.033058
12618.457031	-47.407623
12661.523438	-47.640202
12704.589844	-47.561703
12747.656250	-47.382557
12790.722656	-46.812229
12833.789062	-47.043793
12876.855469	-47.576328
12919.921875	-47.587353
12962.988281	-47.580540
13006.054688	-46.994751
13049.121094	-47.061646
13092.187500	-47.371426
13135.253906	-47.395679
13178.320312	-47.872971
13221.386719	-47.515686
13264.453125	-47.302364
13307.519531	-47.326420
13350.585938	-47.111118
13393.652344	-47.724648
13436.718750	-48.101559
13479.785156	-47.518730
13522.851562	-47.539448
13565.917969	-47.699165
13608.984375	-47.683731
13652.050781	-48.349968
13695.117188	-47.726112
13738.183594	-47.308838
13781.250000	-47.974434
13824.316406	-48.222275
13867.382812	-48.682781
13910.449219	-48.322437
13953.515625	-47.669743
13996.582031	-47.651108
14039.648438	-48.069679
14082.714844	-48.314007
14125.781250	-48.013107
14168.847656	-47.566410
14211.914062	-47.860504
14254.980469	-47.924458
14298.046875	-47.887207
14341.113281	-48.501045
14384.179688	-47.846867
14427.246094	-47.904156
14470.312500	-48.355366
14513.378906	-48.315033
14556.445312	-48.889950
14599.511719	-48.425930
14642.578125	-48.354515
14685.644531	-48.875645
14728.710938	-48.646076
14771.777344	-48.979340
14814.843750	-48.575325
14857.910156	-48.345554
14900.976562	-48.614693
14944.042969	-48.279102
14987.109375	-48.634052
15030.175781	-48.741722
15073.242188	-48.047756
15116.308594	-48.501751
15159.375000	-48.821251
15202.441406	-48.524895
15245.507812	-49.048935
15288.574219	-48.857666
15331.640625	-49.232441
15374.707031	-49.234322
15417.773438	-48.725163
15460.839844	-49.139889
15503.906250	-49.102230
15546.972656	-49.490353
15590.039062	-49.818272
15633.105469	-49.335434
15676.171875	-49.259800
15719.238281	-49.358044
15762.304688	-49.167591
15805.371094	-49.218285
15848.437500	-49.252262
15891.503906	-49.096298
15934.570312	-49.632114
15977.636719	-50.126129
16020.703125	-49.770847
16063.769531	-49.539547
16106.835938	-49.309162
16149.902344	-49.005722
16192.968750	-49.754784
16236.035156	-50.317177
16279.101562	-50.049259
16322.167969	-50.159702
16365.234375	-49.493240
16408.300781	-49.878258
16451.367188	-50.454899
16494.433594	-50.332901
16537.500000	-50.399147
16580.566406	-50.113224
16623.632812	-50.589790
16666.699219	-50.896999
16709.765625	-50.767731
16752.832031	-50.489990
16795.898438	-50.570160
16838.964844	-50.892715
16882.031250	-51.212296
16925.097656	-51.225025
16968.164062	-51.141483
17011.230469	-51.173756
17054.296875	-50.911373
17097.363281	-51.178226
17140.429688	-51.162487
17183.496094	-51.464161
17226.562500	-52.083920
17269.628906	-52.064232
17312.695312	-52.056637
17355.761719	-51.939831
17398.828125	-51.735935
17441.894531	-51.514828
17484.960938	-51.896633
17528.027344	-52.097519
17571.093750	-52.570995
17614.160156	-53.130524
17657.226562	-52.829678
17700.292969	-52.607834
17743.359375	-52.386646
17786.425781	-52.367619
17829.492188	-52.795788
17872.558594	-53.567165
17915.625000	-53.537231
17958.691406	-53.740749
18001.757812	-54.104515
18044.824219	-53.944401
18087.890625	-54.318165
18130.957031	-53.932133
18174.023438	-53.523575
18217.089844	-53.981773
18260.156250	-54.469681
18303.222656	-55.206600
18346.289062	-55.504570
18389.355469	-54.845711
18432.421875	-54.768143
18475.488281	-54.811714
18518.554688	-55.036098
18561.621094	-55.527378
18604.687500	-55.675961
18647.753906	-56.342175
18690.820312	-56.409233
18733.886719	-56.152779
18776.953125	-56.499561
18820.019531	-56.052982
18863.085938	-56.502712
18906.152344	-57.009750
18949.218750	-56.439926
18992.285156	-57.218319
19035.351562	-57.509636
19078.417969	-57.345848
19121.484375	-57.744080
19164.550781	-57.209034
19207.617188	-57.142391
19250.683594	-58.052803
19293.750000	-58.739098
19336.816406	-59.320965
19379.882812	-58.743786
19422.949219	-58.203587
19466.015625	-58.686798
19509.082031	-59.443066
19552.148438	-60.072067
19595.214844	-59.470352
19638.281250	-59.030907
19681.347656	-59.850693
19724.414062	-60.351742
19767.480469	-61.044369
19810.546875	-60.962864
19853.613281	-59.745419
19896.679688	-60.248699
19939.746094	-61.072582
19982.812500	-61.890099
20025.878906	-62.535957
20068.945312	-61.430046
20112.011719	-61.562046
20155.078125	-62.207336
20198.144531	-62.789379
20241.210938	-63.228626
20284.277344	-62.531643
20327.343750	-62.238224
20370.410156	-62.810955
20413.476562	-63.457485
20456.542969	-63.181377
20499.609375	-63.166782
20542.675781	-63.636829
20585.742188	-63.934361
20628.808594	-63.716984
20671.875000	-62.775536
20714.941406	-61.974861
20758.007812	-62.968044
20801.074219	-64.833145
20844.140625	-65.037231
20887.207031	-64.027885
20930.273438	-62.976532
20973.339844	-62.608932
21016.406250	-62.442173
21059.472656	-62.991840
21102.539062	-63.278423
21145.605469	-64.650543
21188.671875	-66.193932
21231.738281	-64.518929
21274.804688	-63.350418
21317.871094	-62.593517
21360.937500	-62.143093
21404.003906	-62.407959
21447.070312	-63.575558
21490.136719	-64.922928
21533.203125	-66.847778
21576.269531	-65.694099
21619.335938	-63.233665
21662.402344	-61.338005
21705.468750	-61.182007
21748.535156	-62.429310
21791.601562	-63.462879
21834.667969	-66.287758
21877.734375	-66.893280
21920.800781	-65.010696
21963.867188	-63.792400
22006.933594	-62.117302
